!! FILE FIN02_03_fice_inas.edf
!! CREATED ON Wed Jun 27 11:21:51 2018
!! CONTAINING INAS density spectra for AIDA experiment FIN02_03
!! aerosol sample SD6:Morocco

X_HEADER=NETCDF_GLOBAL
PI_NAME=Ottmar Moehler
WORKGROUP=AIDA
INSTITUTE=IMK-AAF
ORGANISATION=KIT
EMAIL=ottmar.moehler@kit.edu
ADDRESS=PO Box 3640, 76021 Karlsruhe
PHONE=+49721608xxxxx
TITLE=AIDA ice nucleation
DATA_CATEGORY=EXPERIMENT
EXPERIMENT=
CAMPAIGN=
MISSION=
TYPE_OF_DATA=MEASUREMENT
STATUS_OF_FILE=
VERSION=
SOURCE_FILE=none
DATA_ORIGIN=
PLATFORM=CHAMBER
NAME_OF_PLATFORM=AIDA

X_HEADER=NETCDF_TIME

X_HEADER=NETCDF_PARAMETER

LONG_NAME(1)=mean chamber gas temperature in nucleation bin
SHORT_NAME(1)=T
MISSING_VALUE(1)=-9999.99
UNITS(1)=K
DESCRIPTION(1)=
ACCURACY_ABS(1)=
ACCURACY_REL(1)=
DETECTION_LIMIT(1)=
INSTRUMENT(1)=thermocouple
CALIBRATION(1)=
INSTRUMENT_FILE(1)=n.a.
ANALYSIS_FILE(1)=n.a.

LONG_NAME(2)=absolute error of mean chamber gas temperature in nucleation bin
SHORT_NAME(2)=T_ERR
MISSING_VALUE(2)=-9999.99
UNITS(2)=K
DESCRIPTION(2)=
ACCURACY_ABS(2)=
ACCURACY_REL(2)=
DETECTION_LIMIT(2)=
INSTRUMENT(2)=thermocouple
CALIBRATION(2)=
INSTRUMENT_FILE(2)=n.a.
ANALYSIS_FILE(2)=n.a.

LONG_NAME(3)=mean chamber ice saturation ration in nucleation bin
SHORT_NAME(3)=SI
MISSING_VALUE(3)=-9999.99
UNITS(3)=1
DESCRIPTION(3)=
ACCURACY_ABS(3)=
ACCURACY_REL(3)=
DETECTION_LIMIT(3)=
INSTRUMENT(3)=TDL tunable diode laser absorption
CALIBRATION(3)=
INSTRUMENT_FILE(3)=n.a.
ANALYSIS_FILE(3)=n.a.

LONG_NAME(4)=absolute error of mean chamber ice saturation ratio in nucleation bin
SHORT_NAME(4)=SI_ERR
MISSING_VALUE(4)=-9999.99
UNITS(4)=1
DESCRIPTION(4)=
ACCURACY_ABS(4)=
ACCURACY_REL(4)=
DETECTION_LIMIT(4)=
INSTRUMENT(4)=TDL tunable diode laser absorption
CALIBRATION(4)=
INSTRUMENT_FILE(4)=n.a.
ANALYSIS_FILE(4)=n.a.

LONG_NAME(5)=INAS density in nucleation bin
SHORT_NAME(5)=NS
MISSING_VALUE(5)=-9999.99
UNITS(5)=m-2
DESCRIPTION(5)=calculated following Ullrich et al., 2017
ACCURACY_ABS(5)=
ACCURACY_REL(5)=
DETECTION_LIMIT(5)=
INSTRUMENT(5)=
CALIBRATION(5)=
INSTRUMENT_FILE(5)=n.a.
ANALYSIS_FILE(5)=n.a.

LONG_NAME(6)=absolute error of INAS density in nucleation bin
SHORT_NAME(6)=NS_ERR
MISSING_VALUE(6)=-9999.99
UNITS(6)=m-2
DESCRIPTION(6)=calculated following Ullrich et al., 2017
ACCURACY_ABS(6)=
ACCURACY_REL(6)=
DETECTION_LIMIT(6)=
INSTRUMENT(6)=
CALIBRATION(6)=
INSTRUMENT_FILE(6)=n.a.
ANALYSIS_FILE(6)=n.a.

X_HEADER=ENZ
COLUMN 1=T
COLUMN 2=T_ERR
COLUMN 3=SI
COLUMN 4=SI_ERR
COLUMN 5=NS
COLUMN 6=NS_ERR
NUMBER OF COLUMNS=6
&&&&&&&&&&&&&&&&&&&&&
 249.05499, 0.33000001, 1.2290000, 0.061000001, 1.88000000E+009, 7.33100032E+008
 248.63699, 0.33500001, 1.2340000, 0.061999999, 2.60199987E+009, 1.01500000E+009
 248.26100, 0.32499999, 1.2390000, 0.061999999, 3.17400013E+009, 1.23800000E+009
 248.04401, 0.31500000, 1.2300000, 0.061999999, 6.74499994E+009, 2.63100006E+009
 247.81700, 0.31299999, 1.2309999, 0.061999999, 2.70599987E+009, 1.05500000E+009
 247.61000, 0.31600001, 1.2359999, 0.063000001, 9.03299994E+009, 3.52300006E+009
 247.45900, 0.30399999, 1.2380000, 0.061999999, 5.09099981E+009, 1.98600000E+009
 247.25900, 0.31099999, 1.2430000, 0.061999999, 6.26300006E+009, 2.44300006E+009
 247.05299, 0.30800000, 1.2510000, 0.063000001, 7.86499994E+009, 3.06700006E+009
 246.81200, 0.31000000, 1.2650000, 0.063000001, 6.22499994E+009, 2.42800000E+009
 246.66600, 0.30300000, 1.2490000, 0.063000001, 1.21100001E+010, 4.72299981E+009
 246.38300, 0.33000001, 1.2480000, 0.061999999, 8.78900019E+009, 3.42800000E+009
 246.23700, 0.30199999, 1.2570000, 0.063000001, 1.19800003E+010, 4.67299994E+009
 246.10899, 0.30300000, 1.2480000, 0.061999999, 7.60099994E+009, 2.96400000E+009
 245.99300, 0.30100000, 1.2520000, 0.063000001, 1.40499999E+010, 5.47900006E+009
 245.84399, 0.30199999, 1.2530000, 0.063000001, 1.60699996E+010, 6.26599987E+009
 245.77800, 0.30100000, 1.2600000, 0.063000001, 1.94400010E+010, 7.58300006E+009
 245.63600, 0.30399999, 1.2670000, 0.063000001, 1.69400003E+010, 6.60500019E+009
 245.55701, 0.30199999, 1.2650000, 0.063000001, 2.24700006E+010, 8.76499968E+009
 245.43201, 0.30500001, 1.2650000, 0.063000001, 2.78500004E+010, 1.08600003E+010
 245.33000, 0.30300000, 1.2650000, 0.064000003, 2.68699996E+010, 1.04800000E+010
 245.30200, 0.30000001, 1.2530000, 0.064000003, 2.98900009E+010, 1.16600003E+010
 245.16901, 0.30700001, 1.2620000, 0.063000001, 3.32300001E+010, 1.29600000E+010
